Software Version:	2.0.6470.17062
Unit SN:	AIO-M72-0210
Spectrometer SN:	5335
Date:	1/8/2018 11:54:58 AM
Data Line Index:	25
Spectral Points:	1941
Integration time (ms):	10000
Averages:	20
Delay (ms):	0
Sequence Number:	1
Processing:	dark subtract
Laser Power (mW):	300
Laser Current (mA):	753
Laser Diode Temp (C):	25
Laser Case Temp (C):	22.7
System Temp (C):	23.6
Spectrometer Temp (C):	20.7
CCD Temp (C):	-0.003
Secondary Temp (C):	20.006
Heatsink Temp (C):	18.895
CCDPCB Temp (C):	37.663
SecondaryPCB Temp (C):	25.024

Wavelength	RamanShift	Raw Counts	Dark Subtracted
801.1299	250.3411	43421.3	41823.7
801.2731	252.571	42474.45	40934.45
801.4162	254.8003	41701.7	40150.8
801.5594	257.0291	40824	39235.2
801.7026	259.2572	39986.95	38386.5
801.8458	261.4848	39153	37546.85
801.989	263.7118	38377	36838.1
802.1322	265.9382	37565.65	35964.95
802.2755	268.1641	36796.1	35199.55
802.4187	270.3894	36077.25	34489.65
802.562	272.6141	35354.95	33762.3
802.7053	274.8382	34579.2	33027.85
802.8486	277.0617	33911.25	32352.25
802.9919	279.2847	33198.5	31690.95
803.1352	281.5071	32668.3	31063.4
803.2785	283.7289	32057.45	30445.25
803.4219	285.9501	31356.45	29816.55
803.5652	288.1707	30818.95	29271.1
803.7086	290.3908	30323.9	28728.5
803.852	292.6103	29874.1	28312.15
803.9954	294.8292	29352.35	27784.55
804.1388	297.0475	29283.95	27547.35
804.2823	299.2652	28801	27145.4
804.4257	301.4823	28423.45	26773.15
804.5692	303.6989	28145.45	26532.45
804.7126	305.9148	27861.95	26220.15
804.8561	308.1302	27410.55	25810.1
804.9996	310.345	27150.45	25526.55
805.1431	312.5592	26802.75	25250.1
805.2867	314.7728	26621.95	25064.3
805.4302	316.9859	26442.1	24757.05
805.5738	319.1983	26178.85	24568.05
805.7173	321.4101	25999.55	24397.35
805.8609	323.6214	26046.4	24266.85
806.0045	325.832	25765.75	24083.1
806.1481	328.0421	25628.75	24032.45
806.2917	330.2516	25535.55	23877.2
806.4353	332.4605	25446.35	23831.15
806.579	334.6688	25493.45	23780.95
806.7226	336.8764	25240.6	23677.2
806.8663	339.0835	25124.7	23575.6
807.01	341.2901	25257.9	23611.55
807.1536	343.496	25325.8	23591.5
807.2973	345.7013	25215.85	23628.35
807.4411	347.906	25234.65	23634.5
807.5848	350.1101	25301.05	23699.55
807.7285	352.3136	25426.25	23764.9
807.8723	354.5165	25393.4	23766.05
808.016	356.7188	25417.15	23772.2
808.1598	358.9206	25483.35	23831.7
808.3036	361.1217	25450.25	23795.15
808.4474	363.3222	25473.9	23796.65
808.5912	365.5221	25467.85	23789
808.735	367.7214	25426.4	23773.05
808.8788	369.9201	25613.15	23757.05
809.0227	372.1182	25650.6	23913.65
809.1665	374.3157	26349.3	24661.5
809.3104	376.5126	27774.35	26067.85
809.4543	378.7089	28588.55	26927.55
809.5982	380.9046	28197.85	26443.2
809.7421	383.0997	26810.05	25166.85
809.886	385.2941	25928.65	24237.3
810.0299	387.488	25475.8	23899.1
810.1739	389.6813	25351.5	23760.25
810.3178	391.8739	25289.7	23687.15
810.4618	394.0659	25227.8	23622.8
810.6057	396.2574	25340.35	23692.35
810.7497	398.4482	25399.65	23733.95
810.8937	400.6384	25509.8	23810.1
811.0377	402.828	25575.65	23912.35
811.1817	405.017	26090.25	24100.7
811.3257	407.2054	26188.45	24421
811.4698	409.3931	26559.2	24929.1
811.6138	411.5803	28406.4	26717.6
811.7579	413.7668	34087.15	32349.7
811.9019	415.9527	41158.95	39440.85
812.046	418.138	42955.9	41209.85
812.1901	420.3227	37509.4	35745.3
812.3342	422.5068	31728.85	29698.95
812.4783	424.6903	28699.7	26892.35
812.6224	426.8731	27846.55	26143.4
812.7666	429.0553	27893.55	26212.7
812.9107	431.2369	28251.65	26168.15
813.0549	433.4179	27385.05	25491.7
813.199	435.5983	26480.15	24781.75
813.3432	437.7781	25905.1	24289.6
813.4874	439.9572	25681.45	24019.95
813.6316	442.1357	25538.85	23926.8
813.7758	444.3136	25773.95	24130.3
813.92	446.4909	26229	24591.3
814.0642	448.6675	26943.25	24908.75
814.2084	450.8435	26551.1	24735.2
814.3527	453.0189	25875.5	24177.65
814.4969	455.1937	25504.05	23820.4
814.6412	457.3679	25265.7	23649.7
814.7854	459.5414	25064.05	23461
814.9297	461.7143	25134.85	23452.2
815.074	463.8866	25003.1	23368.25
815.2183	466.0582	24970.3	23280.85
815.3626	468.2293	24844.3	23132.4
815.5069	470.3997	24674.1	23001.85
815.6513	472.5694	24747.15	22959.1
815.7956	474.7386	24570.85	22846
815.9399	476.9071	24491.3	22767.55
816.0843	479.075	24779.65	22759.5
816.2287	481.2423	24566.05	22748.9
816.373	483.4089	24414.9	22730.5
816.5174	485.5749	24386.8	22620.8
816.6618	487.7403	24565.25	22570.65
816.8062	489.905	24189.25	22478.85
816.9506	492.0691	24083.45	22352.75
817.095	494.2326	23868.2	22219.05
817.2395	496.3954	23765.9	22118
817.3839	498.5576	23651.5	22003.7
817.5283	500.7192	23508.35	21844.45
817.6728	502.8801	23462.7	21776.5
817.8173	505.0405	23463.3	21692.4
817.9617	507.2001	23320.7	21617.85
818.1062	509.3592	23199.4	21557.15
818.2507	511.5176	23197.6	21444.65
818.3952	513.6753	23108	21360.25
818.5397	515.8325	22889.9	21234.4
818.6842	517.9889	22875.6	21236.7
818.8287	520.1448	22696.85	21065.5
818.9733	522.3	22741.5	20992.05
819.1178	524.4546	22653.8	20887.8
819.2623	526.6085	22506.6	20803.35
819.4069	528.7618	22407.65	20670.7
819.5514	530.9145	22324.5	20593.45
819.696	533.0665	22223	20551.65
819.8406	535.2179	22293.75	20458.2
819.9852	537.3686	22079.65	20330.5
820.1298	539.5187	22170.5	20310.35
820.2744	541.6682	21935	20204.5
820.419	543.817	21837.1	20085.25
820.5636	545.9651	21895.8	20041.75
820.7082	548.1126	21616.35	19903.3
820.8528	550.2595	21551.25	19774.75
820.9975	552.4058	21532.15	19712.15
821.1421	554.5513	21338.5	19594.95
821.2868	556.6963	21347.95	19572.1
821.4314	558.8406	21360.45	19528.95
821.5761	560.9842	21242	19480.95
821.7208	563.1272	21106.1	19425.05
821.8655	565.2696	21091.35	19429.15
822.0102	567.4113	21004.05	19346.15
822.1549	569.5524	21159.55	19530.15
822.2996	571.6928	21547.3	19899.25
822.4443	573.8325	22610.6	20935.5
822.589	575.9717	23800	21905.2
822.7337	578.1101	23701.7	21867.6
822.8785	580.2479	22559.4	20794.55
823.0232	582.3851	21594.95	19850.45
823.1679	584.5216	21032.95	19259.75
823.3127	586.6575	20833.4	19028.05
823.4574	588.7927	20714.55	18820.8
823.6022	590.9272	20453.15	18734.3
823.747	593.0611	20410.5	18635.4
823.8918	595.1944	20295	18555.3
824.0366	597.327	20198.15	18456.25
824.1813	599.4589	20102.2	18404.7
824.3261	601.5902	20007.65	18283.45
824.4709	603.7208	19973.95	18250.6
824.6158	605.8508	19948.35	18185.75
824.7606	607.9802	19831.3	18050.55
824.9054	610.1088	19796.45	18103.1
825.0502	612.2368	19769.15	18032
825.1951	614.3642	19705.6	18016.95
825.3399	616.4909	19678.25	17907.15
825.4848	618.6169	19691.45	17803.6
825.6296	620.7423	19516.8	17703.25
825.7745	622.867	19363.1	17654
825.9193	624.9911	19303	17582.95
826.0642	627.1145	19322.75	17536.95
826.2091	629.2372	19300.6	17495.7
826.354	631.3593	19540.75	17453.3
826.4989	633.4807	19368.65	17443.7
826.6438	635.6015	19329.95	17402.55
826.7887	637.7216	19105.95	17377.55
826.9336	639.841	19033.05	17368.7
827.0785	641.9598	19131.55	17416.35
827.2234	644.0779	19143.2	17425.3
827.3683	646.1954	19064.1	17330.6
827.5132	648.3122	18975.7	17209.5
827.6582	650.4283	18847.75	17093.75
827.8031	652.5438	18773.1	16975.75
827.9481	654.6585	18703.1	16876.7
828.093	656.7727	18652.25	16830.6
828.238	658.8861	18633.95	16781.1
828.3829	660.9989	18584.55	16700.8
828.5279	663.1111	18491.2	16656.15
828.6728	665.2225	18404.55	16538.8
828.8178	667.3333	18266	16473.35
828.9628	669.4435	18219.05	16354
829.1078	671.5529	18234.75	16275.25
829.2528	673.6617	18002.65	16217.1
829.3978	675.7699	17920.5	16131.9
829.5428	677.8773	17931.3	16082.75
829.6878	679.9841	17835.65	16032.1
829.8328	682.0902	17771	15990
829.9778	684.1957	17788.15	16007.55
830.1228	686.3005	17760.75	15969.95
830.2678	688.4046	17747.7	15922.45
830.4128	690.508	17644.9	15901.25
830.5579	692.6108	17664.15	15894.35
830.7029	694.7129	17698	15885.15
830.8479	696.8143	17680.7	15816.9
830.993	698.9151	17601.3	15777.6
831.138	701.0152	17554.65	15737.25
831.2831	703.1146	17521.85	15733.3
831.4281	705.2133	17426.1	15696
831.5732	707.3114	17467.15	15656.5
831.7183	709.4087	17395.35	15636.9
831.8633	711.5054	17477.8	15680.4
832.0084	713.6015	17445.7	15667.35
832.1535	715.6968	17384.75	15631.75
832.2985	717.7915	17340.6	15622.3
832.4436	719.8855	17352.55	15612.25
832.5887	721.9789	17324.25	15594.05
832.7338	724.0715	17383.3	15573.7
832.8789	726.1635	17338.3	15563.05
833.024	728.2548	17458.6	15661
833.1691	730.3454	17579.75	15714.7
833.3142	732.4354	17878.1	15844.45
833.4593	734.5246	17877.15	16036.05
833.6044	736.6132	18116.45	16314.05
833.7495	738.7011	18424.95	16648.8
833.8946	740.7884	18940.35	17209.2
834.0398	742.8749	19720	18021.9
834.1849	744.9608	20763.95	19064.2
834.33	747.046	21923.35	20197.7
834.4751	749.1305	22836.9	21035.9
834.6203	751.2143	23015.95	21142.95
834.7654	753.2974	22087.25	20314.3
834.9105	755.3799	20870.05	19093.7
835.0557	757.4617	19652.8	17922.45
835.2008	759.5428	18789.15	17017.4
835.346	761.6232	18076.85	16320.2
835.4911	763.7029	17642.95	15834.95
835.6363	765.782	17252.5	15456.8
835.7814	767.8603	16901.65	15158.2
835.9266	769.938	16716.05	14948.55
836.0717	772.015	16643	14783.65
836.2169	774.0913	16434.95	14626.9
836.3621	776.1669	16309.15	14550.85
836.5072	778.2419	16231.7	14449.25
836.6524	780.3161	16112.4	14385.85
836.7976	782.3897	16066.35	14321.35
836.9428	784.4625	16021.1	14310.3
837.0879	786.5347	15997.65	14264.6
837.2331	788.6062	16150.25	14238.35
837.3783	790.6771	15926.5	14135.8
837.5235	792.7472	15915.75	14088.4
837.6687	794.8166	16019.4	14038.95
837.8138	796.8854	15718.25	13900
837.959	798.9534	15589.4	13807.8
838.1042	801.0208	15485.6	13702
838.2494	803.0875	15448.05	13680.95
838.3946	805.1535	15348.6	13601.45
838.5398	807.2188	15351.15	13559.45
838.685	809.2834	15212.4	13469.6
838.8302	811.3473	15159.95	13400.3
838.9754	813.4106	15026.45	13358.6
839.1206	815.4731	14989.15	13301.45
839.2658	817.5349	14927.75	13182.15
839.411	819.5961	14927.95	13135.05
839.5562	821.6566	14784.1	13048.4
839.7014	823.7163	14707.8	12962.1
839.8467	825.7754	14748.9	12846.65
839.9919	827.8338	14668.35	12826.6
840.1371	829.8915	14549.55	12773.65
840.2823	831.9485	14463.55	12733.2
840.4275	834.0048	14485.4	12679.75
840.5727	836.0604	14388.3	12587.45
840.7179	838.1153	14328.1	12565.75
840.8632	840.1695	14237.95	12504.85
841.0084	842.2231	14309.55	12446.65
841.1536	844.2759	14178.55	12355.55
841.2988	846.328	14176.9	12301.15
841.444	848.3795	13976.2	12197.55
841.5893	850.4302	13907.2	12179.1
841.7345	852.4802	13897.35	12135.6
841.8797	854.5296	13885.3	12047.55
842.0249	856.5782	13888.05	12026.6
842.1702	858.6262	13723.8	11926.6
842.3154	860.6734	13768.8	11930.1
842.4606	862.72	13592.55	11833.6
842.6058	864.7658	13469.5	11715.45
842.7511	866.811	13492.7	11670.35
842.8963	868.8555	13410	11580.95
843.0415	870.8992	13237.6	11479.05
843.1868	872.9423	13198.65	11413.6
843.332	874.9846	13188.35	11339.2
843.4772	877.0263	13092.45	11283.3
843.6225	879.0672	12960.05	11214.95
843.7677	881.1075	12860.95	11155.6
843.9129	883.1471	12854.05	11095.95
844.0581	885.1859	12819.7	11022.85
844.2034	887.2241	12795.3	10950.3
844.3486	889.2615	12627.2	10898.35
844.4938	891.2983	12550.45	10828.15
844.6391	893.3343	12401.65	10734.1
844.7843	895.3696	12384.05	10648.55
844.9295	897.4043	12467.25	10611.85
845.0747	899.4382	12375.2	10558.4
845.22	901.4715	12366	10509.65
845.3652	903.504	12319.85	10444
845.5104	905.5358	12219.75	10419.05
845.6557	907.5669	12166.45	10378.2
845.8009	909.5973	12143.15	10337.3
845.9461	911.6271	12429.75	10273.8
846.0913	913.6561	12261.4	10216.75
846.2366	915.6844	11962.65	10148.55
846.3818	917.7119	11965.9	10057.7
846.527	919.7388	11848.05	9998.65
846.6722	921.765	11770.1	9973.9
846.8175	923.7905	12340.6	9926.65
846.9627	925.8153	11970.55	9893.8
847.1079	927.8393	11682.55	9866.15
847.2531	929.8627	11672.1	9835.4
847.3983	931.8853	11594.9	9764.6
847.5436	933.9073	11501.8	9758.55
847.6888	935.9285	11466.6	9722.75
847.834	937.949	11349.15	9657.95
847.9792	939.9688	11387.65	9600.1
848.1244	941.9879	11410.15	9575.8
848.2696	944.0063	11311.6	9486.55
848.4148	946.024	11382.35	9495.3
848.56	948.041	11218.4	9435.3
848.7052	950.0573	11174.7	9374.5
848.8504	952.0728	11187.25	9381.05
848.9957	954.0877	11136.95	9360.25
849.1409	956.1018	11068.45	9331.55
849.2861	958.1152	11096.2	9318.4
849.4313	960.1279	10986.7	9282.4
849.5765	962.1399	11000.65	9224.85
849.7216	964.1512	10925.95	9192.3
849.8668	966.1618	10966.9	9177.25
850.012	968.1717	10966.65	9123.2
850.1572	970.1808	10838	9073.95
850.3024	972.1893	10843	9045.45
850.4476	974.197	10848.55	9049.05
850.5928	976.204	10788.8	9036.9
850.738	978.2103	10766.5	9033.3
850.8831	980.2159	10799.55	9027.9
851.0283	982.2208	10932.1	9035
851.1735	984.2249	10980.3	9029.85
851.3187	986.2284	10820.15	9016.85
851.4638	988.2311	11143.2	8965.95
851.609	990.2331	10866.8	8936.95
851.7542	992.2344	10822.15	8902.4
851.8993	994.235	10893.2	8896.9
852.0445	996.2349	10762.45	8845.9
852.1897	998.2341	10694.15	8862.65
852.3348	1000.2325	10726.35	8866.95
852.48	1002.2302	10646.1	8871.5
852.6251	1004.2272	10544.6	8839.9
852.7703	1006.2235	10607.35	8814.25
852.9154	1008.2191	10550.05	8812.65
853.0606	1010.214	10610.05	8819.5
853.2057	1012.2081	10549.05	8803.3
853.3508	1014.2015	10523.25	8770
853.496	1016.1942	10516.85	8747.25
853.6411	1018.1862	10505.5	8714.45
853.7862	1020.1775	10620.2	8677.45
853.9314	1022.168	10548.6	8659.65
854.0765	1024.1579	10452.2	8667.2
854.2216	1026.147	10477.9	8668.7
854.3667	1028.1354	10473.75	8662.5
854.5118	1030.1231	10395.95	8646.4
854.657	1032.11	10427.95	8649.75
854.8021	1034.0963	10402.95	8663.8
854.9472	1036.0818	10330.2	8596.95
855.0923	1038.0666	10342.6	8567.75
855.2374	1040.0507	10371.1	8564.65
855.3825	1042.034	10435	8554.55
855.5275	1044.0166	10316.55	8532.15
855.6726	1045.9986	10303.15	8530.5
855.8177	1047.9798	10290.8	8515.4
855.9628	1049.9602	10255.95	8532.5
856.1079	1051.94	10286.7	8526
856.2529	1053.919	10265.5	8526.95
856.398	1055.8973	10233.2	8501.8
856.5431	1057.8749	10288.75	8462.55
856.6881	1059.8518	10231.55	8432.4
856.8332	1061.8279	10278.2	8423.15
856.9782	1063.8033	10236.55	8385.5
857.1233	1065.778	10156.2	8364.35
857.2683	1067.752	10127.7	8368.45
857.4134	1069.7253	10505.05	8374.1
857.5584	1071.6978	10298.6	8351.4
857.7034	1073.6696	10159.9	8371.95
857.8485	1075.6407	10108.55	8332.55
857.9935	1077.611	10156.7	8339.05
858.1385	1079.5806	10065.85	8292.8
858.2835	1081.5496	9983.1	8254.45
858.4285	1083.5177	9992.6	8245.45
858.5736	1085.4852	9963.95	8200.45
858.7186	1087.4519	9941.75	8184.55
858.8635	1089.4179	10018.6	8149.5
859.0085	1091.3832	9975.8	8131.3
859.1535	1093.3478	10006.5	8125.55
859.2985	1095.3116	9921.75	8136.35
859.4435	1097.2747	9920.15	8109
859.5885	1099.2371	9851.1	8115.9
859.7334	1101.1987	9850	8079.65
859.8784	1103.1596	9913.4	8091.4
860.0234	1105.1198	9804.2	8044.8
860.1683	1107.0793	9887.9	8030.1
860.3133	1109.0381	9824.3	8007.45
860.4582	1110.9961	10023.45	8003.2
860.6031	1112.9534	9822.55	7958.95
860.7481	1114.9099	9844.55	7996.25
860.893	1116.8658	9792.4	7956.05
861.0379	1118.8209	10360.4	7975.7
861.1829	1120.7752	9926.15	7970.85
861.3278	1122.7289	9763.4	7971.85
861.4727	1124.6818	9724.6	7973.6
861.6176	1126.634	9751.55	7958.05
861.7625	1128.5855	9685.05	7945.85
861.9074	1130.5362	9705.2	7946.45
862.0523	1132.4862	9686.75	7919.4
862.1971	1134.4355	9778.8	7901.55
862.342	1136.384	9747.5	7943.85
862.4869	1138.3318	9695.15	7932.55
862.6318	1140.2789	9721.15	7918
862.7766	1142.2253	9678.2	7910.65
862.9215	1144.1709	9693.4	7914.9
863.0663	1146.1158	9699.75	7923.3
863.2112	1148.0599	10158.25	7895.75
863.356	1150.0034	9840.75	7908
863.5008	1151.9461	9687.7	7900.3
863.6456	1153.888	9713.9	7909.85
863.7905	1155.8293	9595.5	7850.65
863.9353	1157.7698	9729.65	7846.3
864.0801	1159.7096	9707.2	7824.75
864.2249	1161.6486	9623.8	7831.3
864.3697	1163.5869	9629.7	7870.6
864.5145	1165.5245	9580.55	7855.4
864.6592	1167.4613	9553.7	7822.1
864.804	1169.3975	9527.25	7834.3
864.9488	1171.3328	9540.05	7859.55
865.0935	1173.2675	9554.1	7839.5
865.2383	1175.2014	9570.8	7799
865.3831	1177.1346	9592.9	7775.75
865.5278	1179.067	9545.2	7767.7
865.6725	1180.9988	9632.9	7746.65
865.8173	1182.9297	9536.9	7734.8
865.962	1184.86	9566.2	7738.2
866.1067	1186.7895	9537.65	7747.15
866.2514	1188.7183	9546.9	7759.1
866.3961	1190.6463	9598.15	7756.3
866.5408	1192.5737	9634.3	7765.25
866.6855	1194.5002	9536.4	7750.65
866.8302	1196.4261	9473	7730.45
866.9749	1198.3512	9538.1	7728.4
867.1195	1200.2756	9516.85	7726.2
867.2642	1202.1992	9475.6	7672.4
867.4088	1204.1221	9435.75	7679.8
867.5535	1206.0443	9463.45	7673.5
867.6981	1207.9657	9687.6	7681.75
867.8428	1209.8864	9636.45	7672.1
867.9874	1211.8064	9612.65	7654.7
868.132	1213.7256	9597	7688.8
868.2766	1215.6441	9460.7	7671.15
868.4212	1217.5618	9487.65	7663
868.5658	1219.4789	9492.75	7663.65
868.7104	1221.3951	9473.9	7651.2
868.855	1223.3107	9400.65	7640.1
868.9996	1225.2255	9392.95	7621.85
869.1441	1227.1396	9420.3	7603.2
869.2887	1229.0529	9426.8	7593.8
869.4333	1230.9655	9392.15	7555.15
869.5778	1232.8773	9430.1	7566.25
869.7223	1234.7885	9437.7	7585.2
869.8669	1236.6989	9483.85	7587.5
870.0114	1238.6085	9437.25	7606.55
870.1559	1240.5174	9449.4	7592.7
870.3004	1242.4256	9477.8	7602.15
870.4449	1244.333	9411.95	7585.7
870.5894	1246.2397	9384.3	7610.05
870.7339	1248.1457	9311.55	7567.9
870.8783	1250.0509	9346.05	7538.6
871.0228	1251.9554	9374.1	7542.7
871.1673	1253.8591	9353.7	7532.4
871.3117	1255.7621	9327.35	7529
871.4562	1257.6644	9383.95	7533
871.6006	1259.5659	9310.25	7548.85
871.745	1261.4667	9233.45	7522.1
871.8894	1263.3667	9266.35	7514.45
872.0338	1265.266	9222.9	7488.2
872.1782	1267.1646	9220.25	7471.55
872.3226	1269.0624	9217.95	7412.75
872.467	1270.9595	9249.65	7406.3
872.6114	1272.8558	9360.85	7379.7
872.7557	1274.7514	9272.4	7381.55
872.9001	1276.6463	9206.75	7383.65
873.0444	1278.5404	9192.75	7395.2
873.1888	1280.4338	9168.5	7372.05
873.3331	1282.3264	9122.45	7366.65
873.4774	1284.2183	9154.25	7340.1
873.6217	1286.1095	9101.55	7318.7
873.7661	1287.9999	9173	7342.9
873.9103	1289.8896	9096.85	7326.55
874.0546	1291.7785	9005.95	7283.65
874.1989	1293.6667	9103.9	7268.35
874.3432	1295.5542	9093.4	7278.05
874.4874	1297.4409	9099.05	7266.35
874.6317	1299.3269	9098.45	7258.15
874.7759	1301.2121	9140.55	7272.95
874.9202	1303.0966	9098.8	7264.8
875.0644	1304.9803	9046.95	7249.65
875.2086	1306.8633	9017.2	7244.95
875.3528	1308.7456	8991.3	7213.45
875.497	1310.6271	8960.6	7187.55
875.6412	1312.5079	8938.5	7176.7
875.7853	1314.3879	8983.85	7182.9
875.9295	1316.2672	8945.6	7148.95
876.0737	1318.1458	8923.2	7146.05
876.2178	1320.0236	8895.6	7139.85
876.3619	1321.9006	8947.55	7137.1
876.5061	1323.7769	9095.4	6964.75
876.6502	1325.6525	8985.45	7086.7
876.7943	1327.5273	8951.7	7133.65
876.9384	1329.4014	8934.75	7130.3
877.0825	1331.2748	8874.5	7116.6
877.2266	1333.1474	8962.65	7136.05
877.3706	1335.0192	8899.6	7107.15
877.5147	1336.8903	8882.95	7109.75
877.6587	1338.7607	8890.9	7095.9
877.8028	1340.6303	8898.6	7124
877.9468	1342.4992	8890.85	7118.6
878.0908	1344.3674	8899.15	7105.15
878.2348	1346.2348	8899.5	7145.45
878.3788	1348.1014	8885.7	7126.7
878.5228	1349.9673	8875.95	7112.65
878.6668	1351.8325	8980.8	7126.65
878.8108	1353.6969	8963.3	7112.25
878.9547	1355.5606	8905.25	7082
879.0987	1357.4235	8906.4	7082.15
879.2426	1359.2857	8857.35	7031.55
879.3865	1361.1471	8830.95	7019.95
879.5304	1363.0078	8911.65	6995.1
879.6743	1364.8677	8820.35	6956.2
879.8182	1366.7269	8739.6	6958.85
879.9621	1368.5854	8688.55	6945.95
880.106	1370.4431	8795.35	6953.6
880.2498	1372.3	8855.8	6942.7
880.3937	1374.1563	8755	6922.45
880.5375	1376.0117	8737	6889.45
880.6814	1377.8665	8657.4	6863.6
880.8252	1379.7204	8603.55	6818.3
880.969	1381.5737	8855.9	6808.9
881.1128	1383.4262	8673.5	6796
881.2566	1385.2779	8620.25	6773.7
881.4003	1387.1289	8592.5	6773.2
881.5441	1388.9791	8535.15	6777.8
881.6879	1390.8286	8551.4	6780
881.8316	1392.6774	8513.3	6744.6
881.9753	1394.5254	8454.25	6730.75
882.1191	1396.3727	8729.1	6735.95
882.2628	1398.2192	8540.85	6728.25
882.4065	1400.0649	8502.85	6689.65
882.5501	1401.91	8667.5	6689.25
882.6938	1403.7542	8506.45	6682.85
882.8375	1405.5978	8512.5	6650.8
882.9811	1407.4405	8458.1	6634.95
